#  TEXES order positions grabbed originally from the atmos plots
#  units are wavenumbers (cm-1) and edge-to-edge of each order for
#  on-blaze is shown
380.028	380.32
380.69	380.983
381.352	381.645
382.014	382.307
382.676	382.97
383.338	383.632
384.0	384.295
384.661	384.957
385.323	385.619
385.985	386.282
386.647	386.944
387.309	387.607
387.971	388.269
388.633	388.931
389.295	389.594
389.957	390.256
390.618	390.919
391.28	391.581
391.942	392.243
392.604	392.906
393.266	393.568
393.928	394.231
394.59	394.893
395.252	395.555
395.914	396.218
396.576	396.88
397.237	397.543
397.899	398.205
398.561	398.867
399.223	399.53
400.547	400.855
401.209	401.517
401.871	402.179
402.533	402.842
403.194	403.504
403.856	404.167
404.518	404.829
405.18	405.491
405.842	406.154
406.504	406.816
407.166	407.479
407.828	408.141
408.49	408.803
409.152	409.466
409.813	410.128
410.475	410.791
411.137	411.453
411.799	412.116
412.461	412.778
413.123	413.44
413.785	414.103
414.447	414.765
415.109	415.428
415.771	416.09
416.432	416.752
417.094	417.415
417.756	418.077
418.418	418.74
419.08	419.402
419.742	420.064
420.404	420.727
421.066	421.389
421.728	422.052
422.389	422.714
423.051	423.376
423.713	424.039
424.375	424.701
425.037	425.364
425.699	426.026
426.361	426.688
427.023	427.351
427.685	428.013
428.347	428.676
429.008	429.338
429.67	430.0
430.332	430.663
430.994	431.325
431.656	431.988
432.318	432.65
432.98	433.312
433.642	433.975
434.304	434.637
434.965	435.3
435.627	435.962
436.289	436.624
436.951	437.287
437.613	437.949
438.275	438.612
438.937	439.274
439.599	439.936
440.261	440.599
440.923	441.261
441.584	441.924
442.246	442.586
442.908	443.249
443.57	443.911
444.232	444.573
444.894	445.236
445.556	445.898
446.218	446.561
446.88	447.223
447.542	447.885
448.203	448.548
448.865	449.21
449.527	449.873
450.189	450.535
450.851	451.197
451.513	451.86
452.175	452.522
452.837	453.185
453.499	453.847
454.16	454.509
454.822	455.172
455.484	455.834
456.146	456.497
456.808	457.159
457.47	457.821
458.132	458.484
458.794	459.146
459.456	459.809
460.118	460.471
460.779	461.133
461.441	461.796
462.103	462.458
462.765	463.121
463.427	463.783
464.089	464.445
464.751	465.108
465.413	465.77
466.075	466.433
466.736	467.095
467.398	467.757
468.06	468.42
468.722	469.082
469.384	469.745
470.046	470.407
470.708	471.069
471.37	471.732
472.032	472.394
472.694	473.057
473.355	473.719
474.017	474.382
474.679	475.044
475.341	475.706
476.003	476.369
476.665	477.031
477.327	477.694
477.989	478.356
478.651	479.018
479.312	479.681
479.974	480.343
480.636	481.006
481.298	481.668
481.96	482.33
482.622	482.993
483.284	483.655
483.946	484.318
484.608	484.98
485.27	485.642
485.931	486.305
486.593	486.967
487.255	487.63
487.917	488.292
488.579	488.954
489.241	489.617
490.565	490.942
491.227	491.604
491.889	492.266
492.55	492.929
493.212	493.591
493.874	494.254
494.536	494.916
495.198	495.578
495.86	496.241
496.522	496.903
497.184	497.566
497.846	498.228
498.507	498.89
499.169	499.553
500.493	500.878
501.155	501.54
501.817	502.202
502.479	502.865
503.141	503.527
503.803	504.19
504.465	504.852
505.126	505.514
505.788	506.177
506.45	506.839
507.112	507.502
507.774	508.164
508.436	508.827
509.098	509.489
509.76	510.151
510.422	510.814
511.083	511.476
511.745	512.139
512.407	512.801
513.069	513.463
513.731	514.126
514.393	514.788
515.055	515.451
515.717	516.113
516.379	516.775
517.041	517.438
517.702	518.1
518.364	518.763
519.026	519.425
519.688	520.087
520.35	520.75
521.012	521.412
521.674	522.075
522.336	522.737
522.998	523.399
523.659	524.062
524.321	524.724
524.983	525.387
525.645	526.049
526.307	526.711
526.969	527.374
527.631	528.036
528.293	528.699
528.955	529.361
529.617	530.023
530.278	530.686
530.94	531.348
531.602	532.011
532.264	532.673
532.926	533.335
533.588	533.998
534.25	534.66
534.912	535.323
535.574	535.985
536.235	536.647
536.897	537.31
537.559	537.972
538.221	538.635
538.883	539.297
539.545	539.96
540.207	540.622
540.869	541.284
541.531	541.947
542.193	542.609
542.854	543.271
543.516	543.934
544.178	544.596
544.84	545.259
545.502	545.921
546.164	546.583
546.826	547.246
547.488	547.908
548.15	548.571
548.812	549.233
549.473	549.896
550.135	550.558
550.797	551.22
551.459	551.883
552.121	552.545
552.783	553.208
553.445	553.87
554.107	554.532
554.769	555.195
555.43	555.857
556.092	556.52
556.754	557.182
557.416	557.844
558.078	558.507
558.74	559.169
559.402	559.832
560.064	560.494
560.726	561.156
561.388	561.819
562.049	562.481
562.711	563.144
563.373	563.806
564.035	564.468
564.697	565.131
565.359	565.793
566.021	566.456
566.683	567.118
567.345	567.781
568.006	568.443
568.668	569.105
569.33	569.768
569.992	570.43
570.654	571.092
571.316	571.755
571.978	572.417
572.64	573.08
573.302	573.742
573.964	574.404
574.625	575.067
575.287	575.729
575.949	576.392
576.611	577.054
577.273	577.717
577.935	578.379
578.597	579.041
579.259	579.704
579.821	580.266
579.921	580.366
580.483	580.929
580.583	581.029
581.145	581.591
581.244	581.691
581.806	582.253
581.906	582.353
582.468	582.916
582.568	583.016
583.13	583.578
583.23	583.678
583.792	584.241
583.892	584.341
584.454	584.903
584.554	585.003
585.116	585.565
585.216	585.665
585.778	586.228
585.878	586.328
586.44	586.89
586.54	586.99
587.102	587.553
587.201	587.653
587.763	588.215
587.863	588.315
588.425	588.877
588.525	588.977
589.087	589.54
589.187	589.64
589.749	590.202
590.511	590.965
591.173	591.627
591.835	592.289
592.497	592.952
593.159	593.614
593.82	594.277
594.482	594.939
595.144	595.601
595.806	596.264
596.468	596.926
597.13	597.589
597.792	598.251
598.454	598.913
599.116	599.576
600.439	600.901
601.101	601.563
601.763	602.225
602.425	602.888
603.087	603.55
603.749	604.213
604.411	604.875
605.073	605.538
605.735	606.2
606.396	606.862
607.058	607.525
607.72	608.187
608.382	608.85
609.044	609.512
609.706	610.174
720.243	720.796
720.904	721.458
721.566	722.121
722.228	722.783
722.89	723.445
723.552	724.108
724.214	724.77
724.876	725.433
725.538	726.095
726.2	726.758
726.862	727.42
727.523	728.082
728.185	728.745
728.847	729.407
729.509	730.07
730.171	730.732
730.833	731.394
731.495	732.057
732.157	732.719
732.819	733.382
733.48	734.044
734.142	734.706
734.804	735.369
735.466	736.031
736.128	736.694
736.79	737.356
737.452	738.018
738.114	738.681
738.776	739.343
739.438	740.006
740.099	740.668
740.761	741.33
741.423	741.993
742.085	742.655
742.747	743.318
743.409	743.98
744.071	744.642
744.733	745.305
745.395	745.967
746.057	746.63
746.718	747.292
747.38	747.954
748.042	748.617
748.704	749.279
749.366	749.942
750.028	750.604
750.69	751.266
751.352	751.929
752.014	752.591
752.675	753.254
753.337	753.916
753.999	754.578
754.661	755.241
755.323	755.903
755.985	756.566
756.647	757.228
757.309	757.891
757.971	758.553
758.633	759.215
759.294	759.878
759.956	760.54
760.618	761.203
761.28	761.865
761.942	762.527
762.604	763.19
763.266	763.852
763.928	764.515
764.59	765.177
765.251	765.839
765.913	766.502
766.575	767.164
767.237	767.827
767.899	768.489
768.561	769.151
769.223	769.814
769.785	770.376
769.885	770.476
770.447	771.039
770.547	771.139
771.109	771.701
771.208	771.801
771.771	772.363
771.87	772.463
772.432	773.026
772.532	773.126
773.094	773.688
773.194	773.788
773.756	774.351
773.856	774.451
774.418	775.013
774.518	775.113
775.08	775.675
775.18	775.775
775.742	776.338
775.842	776.438
776.404	777.0
776.504	777.1
777.066	777.663
777.166	777.763
777.728	778.325
777.828	778.425
778.389	778.987
778.489	779.087
779.051	779.65
779.151	779.75
779.813	780.412
780.475	781.075
781.137	781.737
781.799	782.399
782.461	783.062
783.123	783.724
783.785	784.387
784.446	785.049
785.108	785.711
785.77	786.374
786.432	787.036
787.094	787.699
787.756	788.361
788.418	789.023
789.08	789.686
790.404	791.011
791.065	791.673
791.727	792.336
792.389	792.998
793.051	793.66
793.713	794.323
794.375	794.985
795.037	795.648
795.699	796.31
796.361	796.972
797.022	797.635
797.684	798.297
798.346	798.96
799.008	799.622
799.67	800.284
800.332	800.947
800.994	801.609
801.656	802.272
802.318	802.934
802.98	803.596
803.641	804.259
804.303	804.921
804.965	805.584
805.627	806.246
806.289	806.908
806.951	807.571
807.613	808.233
808.275	808.896
808.937	809.558
809.599	810.22
810.26	810.883
810.922	811.545
811.584	812.208
812.246	812.87
812.908	813.532
813.57	814.195
814.232	814.857
814.894	815.52
815.556	816.182
816.217	816.844
816.879	817.507
817.541	818.169
818.203	818.832
818.865	819.494
819.527	820.157
820.189	820.819
820.851	821.481
821.513	822.144
822.174	822.806
822.836	823.469
823.498	824.131
824.16	824.793
824.822	825.456
825.484	826.118
826.146	826.781
826.808	827.443
827.47	828.105
828.132	828.768
828.793	829.43
829.455	830.093
830.117	830.755
830.779	831.417
831.441	832.08
832.103	832.742
832.765	833.405
833.427	834.067
834.089	834.729
834.751	835.392
835.412	836.054
836.074	836.717
836.736	837.379
837.398	838.041
838.06	838.704
838.722	839.366
839.384	840.029
840.046	840.691
840.708	841.353
841.37	842.016
842.031	842.678
842.693	843.341
843.355	844.003
844.017	844.665
844.679	845.328
845.341	845.99
846.003	846.653
846.665	847.315
847.326	847.977
847.988	848.64
848.65	849.302
849.312	849.965
849.974	850.627
850.636	851.289
851.298	851.952
851.96	852.614
852.622	853.277
853.284	853.939
853.945	854.602
854.607	855.264
855.269	855.926
855.931	856.589
856.593	857.251
857.255	857.914
857.917	858.576
858.579	859.238
859.241	859.901
859.903	860.563
860.564	861.226
861.226	861.888
861.888	862.55
862.55	863.213
863.212	863.875
863.874	864.538
864.536	865.2
865.198	865.862
865.86	866.525
866.522	867.187
867.183	867.85
867.845	868.512
868.507	869.174
869.169	869.837
869.831	870.499
870.493	871.162
871.155	871.824
871.817	872.486
872.479	873.149
873.14	873.811
873.802	874.474
874.464	875.136
875.126	875.798
875.788	876.461
876.45	877.123
877.112	877.786
877.774	878.448
878.436	879.11
879.097	879.773
880.421	881.098
881.083	881.76
881.745	882.422
882.407	883.085
883.069	883.747
883.731	884.41
884.393	885.072
885.055	885.734
885.716	886.397
886.378	887.059
887.04	887.722
887.702	888.384
888.364	889.047
889.026	889.709
890.35	891.034
891.012	891.696
891.674	892.359
892.335	893.021
892.997	893.683
893.659	894.346
894.321	895.008
894.983	895.671
895.645	896.333
896.307	896.995
896.969	897.658
897.631	898.32
898.293	898.983
898.954	899.645
899.616	900.307
900.278	900.97
900.94	901.632
901.602	902.295
902.264	902.957
902.926	903.619
903.588	904.282
904.25	904.944
904.911	905.607
905.573	906.269
906.235	906.931
906.897	907.594
907.559	908.256
908.221	908.919
908.883	909.581
909.545	910.243
910.207	910.906
910.869	911.568
911.53	912.231
912.192	912.893
912.854	913.555
913.516	914.218
914.178	914.88
914.84	915.543
915.502	916.205
916.164	916.868
916.826	917.53
917.487	918.192
918.149	918.855
918.811	919.517
919.473	920.18
920.135	920.842
920.797	921.504
921.459	922.167
922.121	922.829
922.783	923.492
923.445	924.154
924.106	924.816
924.768	925.479
925.43	926.141
926.092	926.804
926.754	927.466
927.416	928.128
928.078	928.791
928.74	929.453
929.402	930.116
930.064	930.778
930.725	931.44
931.387	932.103
932.049	932.765
932.711	933.428
933.373	934.09
934.035	934.752
934.697	935.415
935.359	936.077
936.021	936.74
936.682	937.402
937.344	938.064
938.006	938.727
938.668	939.389
939.33	940.052
939.992	940.714
940.654	941.376
941.316	942.039
941.978	942.701
942.64	943.364
943.301	944.026
943.963	944.689
944.625	945.351
945.287	946.013
945.949	946.676
946.611	947.338
947.273	948.001
947.935	948.663
948.597	949.325
949.258	949.988
949.92	950.65
950.582	951.312
951.244	951.975
951.906	952.637
952.568	953.3
953.23	953.962
953.892	954.625
954.554	955.287
955.216	955.949
955.877	956.612
956.539	957.274
957.201	957.937
957.863	958.599
958.525	959.261
959.187	959.924
959.849	960.586
960.511	961.249
961.173	961.911
961.835	962.573
962.496	963.236
963.158	963.898
963.82	964.561
964.482	965.223
965.144	965.885
965.806	966.548
966.468	967.21
967.13	967.873
967.792	968.535
968.453	969.197
969.115	969.86
969.777	970.522
970.439	971.185
971.101	971.847
971.763	972.51
972.425	973.172
973.087	973.834
973.749	974.497
974.411	975.159
975.072	975.822
975.734	976.484
976.396	977.146
977.058	977.809
977.72	978.471
978.382	979.133
979.044	979.796
980.368	981.121
981.029	981.783
981.691	982.446
982.353	983.108
983.015	983.77
983.677	984.433
984.339	985.095
985.001	985.758
985.663	986.42
986.325	987.082
986.987	987.745
987.648	988.407
988.31	989.07
988.972	989.732
990.296	991.057
990.958	991.719
991.62	992.382
992.282	993.044
992.944	993.706
993.606	994.369
994.267	995.031
994.929	995.694
995.591	996.356
996.253	997.018
996.915	997.681
997.577	998.343
998.239	999.006
998.901	999.668
999.563	1000.331
1000.224	1000.993
1000.886	1001.655
1001.548	1002.318
1002.21	1002.98
1002.872	1003.643
1003.534	1004.305
1004.196	1004.967
1004.858	1005.63
1005.52	1006.292
1006.182	1006.954
1006.843	1007.617
1007.505	1008.279
1008.167	1008.942
1008.829	1009.604
1009.491	1010.267
1010.153	1010.929
1010.815	1011.591
1011.477	1012.254
1012.139	1012.916
1012.8	1013.579
1013.462	1014.241
1014.124	1014.903
1014.786	1015.566
1015.448	1016.228
1016.11	1016.891
1016.772	1017.553
1017.434	1018.215
1018.096	1018.878
1018.758	1019.54
1019.419	1020.203
1020.081	1020.865
1020.743	1021.527
1021.405	1022.19
1022.067	1022.852
1022.729	1023.515
1023.391	1024.177
1024.053	1024.839
1024.715	1025.502
1025.376	1026.164
1026.038	1026.827
1026.7	1027.489
1027.362	1028.151
1028.024	1028.814
1028.686	1029.476
1029.348	1030.139
1030.01	1030.801
1030.672	1031.463
1031.334	1032.126
1031.995	1032.788
1032.657	1033.451
1033.319	1034.113
1033.981	1034.776
1034.643	1035.438
1035.305	1036.1
1035.967	1036.763
1036.629	1037.425
1037.291	1038.088
1037.953	1038.75
1038.614	1039.412
1039.276	1040.075
1039.938	1040.737
1040.6	1041.399
1041.262	1042.062
1041.924	1042.724
1042.586	1043.387
1043.248	1044.049
1043.91	1044.712
1044.571	1045.374
1045.233	1046.036
1045.895	1046.699
1046.557	1047.361
1047.219	1048.024
1047.881	1048.686
1048.543	1049.348
1049.205	1050.011
1049.867	1050.673
1050.528	1051.336
1051.19	1051.998
1051.852	1052.66
1052.514	1053.323
1053.176	1053.985
1053.838	1054.648
1054.5	1055.31
1055.162	1055.972
1055.824	1056.635
1056.486	1057.297
1057.147	1057.96
1057.809	1058.622
1058.471	1059.284
1059.133	1059.947
1059.795	1060.609
1060.457	1061.272
1061.119	1061.934
1061.781	1062.596
1062.443	1063.259
1063.105	1063.921
1063.766	1064.584
1064.428	1065.246
1065.09	1065.909
1065.752	1066.571
1066.414	1067.233
1067.076	1067.896
1067.738	1068.558
1068.4	1069.22
1069.062	1069.883
1069.724	1070.545
1070.385	1071.208
1071.047	1071.87
1071.709	1072.532
1072.371	1073.195
1073.033	1073.857
1073.695	1074.52
1074.357	1075.182
1075.019	1075.845
1075.681	1076.507
1076.342	1077.169
1077.004	1077.832
1077.666	1078.494
1078.328	1079.156
1078.99	1079.819
1080.314	1081.144
1080.976	1081.806
1081.638	1082.469
1082.299	1083.131
1082.961	1083.793
1083.623	1084.456
1084.285	1085.118
1084.947	1085.781
1085.609	1086.443
1086.271	1087.105
1086.933	1087.768
1087.595	1088.43
1088.257	1089.093
1088.918	1089.755
1089.58	1090.417
1090.242	1091.08
1090.904	1091.742
1091.566	1092.405
1092.228	1093.067
1092.89	1093.729
1093.552	1094.392
1094.214	1095.054
1094.876	1095.717
1095.537	1096.379
1096.199	1097.041
1096.861	1097.704
1097.523	1098.366
1098.185	1099.029
1098.847	1099.691
1099.509	1100.354
1100.171	1101.016
1100.833	1101.678
1101.495	1102.341
1102.156	1103.003
1102.818	1103.666
1103.48	1104.328
1104.142	1104.99
1104.804	1105.653
1105.466	1106.315
1106.128	1106.978
1106.79	1107.64
1107.452	1108.302
1108.113	1108.965
1108.775	1109.627
1109.437	1110.29
1110.099	1110.952
1110.761	1111.614
1111.423	1112.277
1112.085	1112.939
1112.747	1113.602
1113.409	1114.264
1114.07	1114.926
1114.732	1115.589
1115.394	1116.251
1116.056	1116.914
1116.718	1117.576
1117.38	1118.238
1118.042	1118.901
1118.704	1119.563
1119.366	1120.226
1120.028	1120.888
1120.69	1121.55
1121.351	1122.213
1122.013	1122.875
1122.675	1123.538
1123.337	1124.2
1123.999	1124.862
1124.661	1125.525
1125.323	1126.187
1125.985	1126.85
1126.647	1127.512
1127.308	1128.174
1127.97	1128.837
1128.632	1129.499
1129.294	1130.162
1129.956	1130.824
1130.618	1131.487
1131.28	1132.149
1131.942	1132.811
1132.604	1133.474
1133.266	1134.136
1133.927	1134.798
1134.589	1135.461
1135.251	1136.123
1135.913	1136.786
1136.575	1137.448
1137.237	1138.111
1137.899	1138.773
1138.561	1139.435
1139.223	1140.098
1139.884	1140.76
1140.546	1141.423
1141.208	1142.085
1141.87	1142.747
1142.532	1143.41
1143.194	1144.072
1143.856	1144.734
1144.518	1145.397
1145.18	1146.059
1145.841	1146.722
1146.503	1147.384
1147.165	1148.047
1147.827	1148.709
1148.489	1149.371
1149.151	1150.034
1149.813	1150.696
1150.475	1151.359
1151.137	1152.021
1151.799	1152.683
1152.461	1153.346
1153.122	1154.008
1153.784	1154.671
1154.446	1155.333
1155.108	1155.995
1155.77	1156.658
1156.432	1157.32
1157.094	1157.983
1157.756	1158.645
1158.418	1159.307
1159.079	1159.97
1159.741	1160.632
1160.403	1161.295
1161.065	1161.957
1161.727	1162.62
1162.389	1163.282
1163.051	1163.944
1163.713	1164.607
1164.375	1165.269
1165.036	1165.932
1165.698	1166.594
1166.36	1167.256
1167.022	1167.919
1167.684	1168.581
1168.346	1169.244
1169.008	1169.906
1169.67	1170.568
1170.332	1171.231
1170.994	1171.893
1171.655	1172.556
1172.317	1173.218
1172.979	1173.88
1173.641	1174.543
1174.303	1175.205
1174.965	1175.868
1175.627	1176.53
1176.289	1177.192
1176.951	1177.855
1177.612	1178.517
1178.274	1179.18
1178.936	1179.842
1180.26	1181.167
1180.922	1181.829
1181.584	1182.492
1182.246	1183.154
1182.908	1183.816
1183.57	1184.479
1184.232	1185.141
1184.893	1185.804
1185.555	1186.466
1186.217	1187.129
1186.879	1187.791
1187.541	1188.453
1188.203	1189.116
1188.865	1189.778
1189.527	1190.44
1190.189	1191.103
1190.85	1191.765
1191.512	1192.428
1192.174	1193.09
1192.836	1193.753
1193.498	1194.415
1194.16	1195.077
1194.822	1195.74
1195.484	1196.402
1196.146	1197.065
1196.807	1197.727
1197.469	1198.389
1198.131	1199.052
1198.793	1199.714
1199.455	1200.376
1200.117	1201.039
1200.779	1201.701
1201.441	1202.364
1202.103	1203.026
1202.765	1203.689
1203.426	1204.351
1204.088	1205.013
1204.75	1205.676
1205.412	1206.338
1206.074	1207.001
1206.736	1207.663
1207.398	1208.325
1208.06	1208.988
1208.722	1209.65
1209.383	1210.313
1210.045	1210.975
1210.707	1211.637
1211.369	1212.3
1212.031	1212.962
1212.693	1213.625
1213.355	1214.287
1214.017	1214.949
1214.679	1215.612
1215.341	1216.274
1216.003	1216.937
1216.664	1217.599
1217.326	1218.261
1217.988	1218.924
1218.65	1219.586
1219.312	1220.249
1219.974	1220.911
1220.636	1221.573
1221.298	1222.236
1221.96	1222.898
1222.621	1223.561
1223.283	1224.223
1223.945	1224.885
1224.607	1225.548
1225.269	1226.21
1225.931	1226.873
1226.593	1227.535
1227.255	1228.198
1227.917	1228.86
1228.578	1229.522
1229.24	1230.185
1229.902	1230.847
1230.564	1231.51
1231.226	1232.172
1231.888	1232.834
1232.55	1233.497
1233.212	1234.159
1233.874	1234.822
1234.536	1235.484
1235.197	1236.146
1235.859	1236.809
1236.521	1237.471
1237.183	1238.134
1237.845	1238.796
1238.507	1239.458
1239.169	1240.121
1239.831	1240.783
1240.493	1241.446
1241.154	1242.108
1241.816	1242.771
1242.478	1243.433
1243.14	1244.095
1243.802	1244.758
1244.464	1245.42
1245.126	1246.082
1245.788	1246.745
1246.45	1247.407
1247.112	1248.07
1247.774	1248.732
1248.435	1249.394
1249.097	1250.057
1249.759	1250.719
1250.421	1251.382
1251.083	1252.044
1251.745	1252.707
1252.407	1253.369
1253.069	1254.031
1253.731	1254.694
1254.392	1255.356
1255.054	1256.018
1255.716	1256.681
1256.378	1257.343
1257.04	1258.006
1257.702	1258.668
1258.364	1259.331
1259.026	1259.993
1259.688	1260.655
1260.349	1261.318
1261.011	1261.98
1261.673	1262.643
1262.335	1263.305
1262.997	1263.967
1263.659	1264.63
1264.321	1265.292
1264.983	1265.955
1265.645	1266.617
1266.307	1267.279
1266.968	1267.942
1267.63	1268.604
1268.292	1269.267
1268.954	1269.929
1269.616	1270.591
1270.278	1271.254
1270.94	1271.916
1271.602	1272.579
1272.264	1273.241
1272.925	1273.903
1273.587	1274.566
1274.249	1275.228
